File: data/sample_1/1-12-2021_K2Mo6Te8_sample1_her_06_CV_C03.txt
Ewe/V	<I>/mA	cycle number
0.21447	-0.0185789	1
0.21258	-0.0249412	1
0.209166	-0.0258465	1
0.205762	-0.0266379	1
0.20235	-0.0276572	1
0.198951	-0.0306668	1
0.195488	-0.0295508	1
0.192163	-0.0300416	1
0.188763	-0.030668	1
0.185299	-0.0313328	1
0.181952	-0.0346236	1
0.178586	-0.0329489	1
0.175153	-0.0333947	1
0.171818	-0.0336719	1
0.168381	-0.0345107	1
0.164935	-0.0369162	1
0.161583	-0.0358813	1
0.158184	-0.0363682	1
0.154756	-0.0368042	1
0.151395	-0.0396805	1
0.147983	-0.0381237	1
0.144633	-0.0382037	1
0.141214	-0.0383357	1
0.137805	-0.0385741	1
0.134388	-0.0418209	1
0.130976	-0.039453	1
0.127961	-0.0392996	1
0.126591	-0.0320575	1
0.130057	0.00995591	1
0.135018	0.0163308	1
0.138443	0.0165894	1
0.141773	0.0180652	1
0.14523	0.0189184	1
0.148613	0.0217591	1
0.151989	0.0210664	1
0.15539	0.0215496	1
0.158816	0.0219855	1
0.163647	0.0268117	1
0.168424	0.0312532	1
0.171817	0.0313179	1
0.175184	0.0315589	1
0.178647	0.0341865	1
0.181993	0.0323124	1
0.185373	0.032285	1
0.188806	0.0322661	1
0.192209	0.0322556	1
0.195567	0.034684	1
0.199	0.0327514	1
0.202326	0.0325026	1
0.205789	0.0326111	1
0.209167	0.0326135	1
0.212619	0.0352854	1
0.216045	0.0333187	1
0.219433	0.0331428	1
0.222789	0.0332905	1
0.225371	0.0333608	1
0.226441	0.0360377	1
0.226319	0.0346396	2
0.22425	-0.0124336	2
0.220885	-0.0169792	2
0.216012	-0.0180711	2
0.211062	-0.0148995	2
0.207596	-0.0176972	2
0.204214	-0.0178295	2
0.200846	-0.0186582	2
0.197413	-0.019444	2
0.192484	-0.0257036	2
0.187524	-0.0300162	2
0.184136	-0.0306706	2
0.180702	-0.0313004	2
0.177261	-0.0348041	2
0.173944	-0.0328125	2
0.170487	-0.0334205	2
0.16707	-0.0341711	2
0.163686	-0.0358304	2
0.160341	-0.0356787	2
0.156891	-0.0360495	2
0.153511	-0.0363852	2
0.150123	-0.0366508	2
0.146776	-0.039812	2
0.143338	-0.0380824	2
0.139897	-0.038014	2
0.136517	-0.0382511	2
0.133127	-0.0382926	2
0.129684	-0.0417412	2
0.127138	-0.0390322	2
0.126282	-0.0436149	2
0.128328	0.0114796	2
0.133172	0.0169998	2
0.138164	0.0163647	2
0.141527	0.0178867	2
0.146476	0.0257154	2
0.151476	0.0286522	2
0.154837	0.0294798	2
0.158248	0.0300004	2
0.161689	0.0330084	2
0.165032	0.0309331	2
0.168473	0.0312312	2
0.171881	0.0312127	2
0.175279	0.0316087	2
0.178633	0.0345751	2
0.182043	0.0320731	2
0.185442	0.0322865	2
0.188833	0.0320464	2
0.192235	0.0322183	2
0.195639	0.0349465	2
0.199019	0.0324632	2
0.20241	0.0326008	2
0.205888	0.0325343	2
0.209237	0.0336993	2
0.212639	0.0331411	2
0.216047	0.0332175	2
0.219442	0.0330938	2
0.222866	0.0333473	2
0.225375	0.0334655	2
0.226371	0.0363858	2
0.226156	0.0402254	2