File: data/sample_1/1-12-2021_K2Mo6Te8_sample1_her_10_LSV_C03.txt
Ewe/V	<I>/mA
0.210219	0.000000000000000E+000
0.21002	0.000000000000000E+000
-0.100767	0.545229
-0.102815	0.134254
-0.1064	-0.000952262
-0.109918	-0.00916617
-0.113259	-0.0116595
-0.116567	-0.0127396
-0.119909	-0.0132809
-0.123293	-0.0136554
-0.126577	-0.0139384
-0.12991	-0.0141495
-0.133258	-0.0143155
-0.13661	-0.014497
-0.139957	-0.0146067
-0.143267	-0.0148145
-0.146589	-0.0150681
-0.149869	-0.0151777
-0.153248	-0.0153557
-0.15657	-0.0156123
-0.159919	-0.0158519
-0.163246	-0.0162162
-0.166585	-0.0165604
-0.169889	-0.0168957
-0.173235	-0.0172494
-0.176565	-0.0176694
-0.179917	-0.018055
-0.18318	-0.0184796
-0.186566	-0.0189141
-0.189868	-0.0194089
-0.193164	-0.0199457
-0.196512	-0.0204421
-0.199826	-0.0209288
-0.203121	-0.0214799
-0.206458	-0.0220535
-0.209789	-0.0227252
-0.213202	-0.0233993
-0.216463	-0.0240735
-0.219825	-0.0247864
-0.223205	-0.0255789
-0.226506	-0.0263151
-0.22987	-0.0270808
-0.233169	-0.0279203
-0.236496	-0.0287485
-0.239812	-0.0296112
-0.24321	-0.0305737
-0.246428	-0.0314752
-0.249801	-0.0325722
-0.253127	-0.0337116
-0.256445	-0.0349039
-0.259749	-0.036286
-0.263078	-0.0377
-0.266435	-0.039375
-0.269791	-0.040924
-0.273081	-0.0423646
-0.276477	-0.0437522
-0.279793	-0.0452337
-0.283091	-0.0468156
-0.286395	-0.0484183
-0.289756	-0.0500928
-0.293086	-0.051763
-0.296427	-0.0534155
-0.299767	-0.0550641
-0.303083	-0.0568538
-0.30644	-0.0587248
-0.309796	-0.0605989
-0.313144	-0.0624834
-0.316477	-0.0645754
-0.3198	-0.0667508
-0.323097	-0.0692146
-0.326409	-0.0715631
-0.329768	-0.074079
-0.333034	-0.0768407
-0.3364	-0.0792464
-0.339741	-0.0816371
-0.343044	-0.0843722
-0.346387	-0.087022
-0.349739	-0.089727
-0.353038	-0.0925362
-0.356419	-0.0956016
-0.359698	-0.0991568
-0.363011	-0.102609
-0.366375	-0.10596
-0.369646	-0.109486
-0.373022	-0.113067
-0.376375	-0.116907
-0.37965	-0.121053
-0.383029	-0.125474
-0.38635	-0.130475
-0.389736	-0.135433
-0.393034	-0.140587
-0.396352	-0.146075
-0.399728	-0.151898
-0.402982	-0.157851
-0.406351	-0.164108
-0.409695	-0.170883
-0.412997	-0.178044
-0.416332	-0.185956
-0.419637	-0.194058
-0.423001	-0.202351
-0.426361	-0.211277
-0.429682	-0.221
-0.432974	-0.23144
-0.43632	-0.242667
-0.43962	-0.255018
-0.442935	-0.269361
-0.446279	-0.284396
-0.44962	-0.300867
-0.45289	-0.31788
-0.4563	-0.336323
-0.459655	-0.359832
-0.462969	-0.382161
-0.466295	-0.405912
-0.469633	-0.433369
-0.472923	-0.462076
-0.476231	-0.492813
-0.479595	-0.53104
-0.482956	-0.568584
-0.486227	-0.614064
-0.489579	-0.659406
-0.492947	-0.710512
-0.496289	-0.764798
-0.499585	-0.82462
-0.502939	-0.890935
-0.506246	-0.963247
-0.509539	-1.0419
-0.512937	-1.12994
-0.516148	-1.22517
-0.519537	-1.33098
-0.522862	-1.44783
-0.526201	-1.57159
-0.52951	-1.70916
-0.532851	-1.85592
-0.536201	-2.01473
-0.539498	-2.18504
-0.542889	-2.36936
-0.546179	-2.56697
-0.549502	-2.77619
-0.552865	-2.9956
-0.55616	-3.23053
-0.559507	-3.48441
-0.562862	-3.73993
-0.566145	-4.01983
-0.569514	-4.30441
-0.572827	-4.60637
-0.576184	-4.92133
-0.57949	-5.25034
-0.582797	-5.58539
-0.586151	-5.95451
-0.589474	-6.31219
-0.592776	-6.67834
-0.596096	-7.05349
-0.599428	-7.45357
-0.602845	-7.87826
-0.606106	-8.30684
-0.609441	-8.77557
-0.612754	-9.22954
-0.616098	-9.7072
-0.619598	-10.2153
-0.623204	-10.7281
-0.626424	-11.2514
-0.629793	-11.8199
-0.633113	-12.3515
-0.636443	-12.9044
-0.639807	-13.5037
-0.643097	-14.208
-0.646394	-14.7962
-0.649818	-15.3898
-0.653101	-15.9715
-0.656418	-16.588
-0.659867	-17.2076
-0.663183	-17.8377
-0.666436	-18.468
-0.669735	-19.1038
-0.673156	-19.7565
-0.676417	-20.4213
-0.679858	-21.1031
-0.683057	-21.7654
-0.686473	-22.4923
-0.689754	-23.1978
-0.693023	-23.9123
-0.696365	-24.6011
-0.698891	-25.1166
-0.700125	-25.3183