File: data/sample_1/1-12-2021_K2Mo6Te8_sample1_her_03_CV_C03.txt
Ewe/V	<I>/mA	cycle number
0.22607	-0.000238764	1
0.224301	-0.000566326	1
0.220956	-0.000972299	1
0.217623	-0.00124179	1
0.214297	-0.00151152	1
0.210914	-0.00171403	1
0.207613	-0.00188209	1
0.204288	-0.00204876	1
0.200933	-0.00225119	1
0.197617	-0.00239069	1
0.194327	-0.0025334	1
0.191025	-0.00269196	1
0.187621	-0.0028498	1
0.184303	-0.00300633	1
0.180956	-0.00314592	1
0.177688	-0.00329397	1
0.174278	-0.0034528	1
0.171014	-0.00360157	1
0.16764	-0.00375663	1
0.164366	-0.00391959	1
0.161011	-0.00406252	1
0.157646	-0.00423564	1
0.154368	-0.00437987	1
0.150995	-0.00453776	1
0.147669	-0.00469102	1
0.144364	-0.00485394	1
0.141061	-0.00498907	1
0.137738	-0.00514511	1
0.134406	-0.00528464	1
0.131005	-0.00540585	1
0.127954	-0.00555565	1
0.126468	-0.00547316	1
0.126361	-0.00806865	1
0.126801	-0.00533624	1
0.128609	-0.00403606	1
0.132013	-0.0030048	1
0.135335	-0.00239173	1
0.138718	-0.00192874	1
0.142014	-0.0015534	1
0.145357	-0.00124622	1
0.14871	-0.00101	1
0.152023	-0.000776944	1
0.155325	-0.000552621	1
0.158679	-0.000388337	1
0.162008	-0.000232482	1
0.16526	-6.29766e-05	1
0.168648	7.7187e-05	1
0.171962	0.000188248	1
0.175298	0.000287002	1
0.1786	0.000411458	1
0.181944	0.000505726	1
0.185253	0.000619087	1
0.188571	0.000716552	1
0.191935	0.000850239	1
0.195233	0.000962108	1
0.198584	0.00105796	1
0.201897	0.00116276	1
0.205237	0.00125942	1
0.208597	0.00134662	1
0.211888	0.00145614	1
0.215245	0.00158901	1
0.218646	0.00170248	1
0.221934	0.00182134	1
0.224946	0.00194625	1
0.226544	0.00529511	1
0.22629	0.00216948	1
0.224508	0.000947838	2
0.221181	0.000255122	2
0.217906	-0.000128447	2
0.214575	-0.000431362	2
0.211162	-0.000651687	2
0.207841	-0.000859406	2
0.204457	-0.0010365	2
0.201163	-0.00117961	2
0.197798	-0.00129971	2
0.194491	-0.00142952	2
0.191199	-0.00153626	2
0.187855	-0.00164181	2
0.184493	-0.00172752	2
0.18122	-0.00180603	2
0.177865	-0.00190909	2
0.17454	-0.00198934	2
0.171247	-0.00206812	2
0.167894	-0.0021626	2
0.16457	-0.00222012	2
0.161173	-0.00229779	2
0.157865	-0.00239433	2
0.154525	-0.00246619	2
0.151273	-0.00257242	2
0.147912	-0.0026685	2
0.144572	-0.00275728	2
0.141249	-0.00286438	2
0.137925	-0.00294037	2
0.13461	-0.00306298	2
0.131236	-0.00322536	2
0.128092	-0.00335175	2
0.12653	-0.00338696	2
0.128342	-0.00226945	2
0.13169	-0.00160268	2
0.135034	-0.00123367	2
0.13839	-0.000945562	2
0.141688	-0.000718407	2
0.144988	-0.000504623	2
0.148371	-0.000335284	2
0.151701	-0.000203377	2
0.154955	-7.08266e-05	2
0.158272	5.334e-05	2
0.161634	0.000147166	2
0.165002	0.000237762	2
0.168278	0.000329685	2
0.171657	0.00041705	2
0.174959	0.000506456	2
0.178281	0.000571361	2
0.181663	0.000671454	2
0.184923	0.000737587	2
0.188232	0.000840029	2
0.191566	0.000906387	2
0.194933	0.000986043	2
0.198255	0.00108427	2
0.201632	0.00117043	2
0.204927	0.00127097	2
0.208243	0.0013337	2
0.211612	0.00143569	2
0.214971	0.00155681	2
0.218223	0.00164637	2
0.221645	0.00175815	2
0.224748	0.00187584	2
0.22631	0.00599222	2