File: data/sample_1/1-12-2021_K2Mo6Te8_sample1_her_05_CV_C03.txt
Ewe/V	<I>/mA	cycle number
0.220682	8.7831e-05	1
0.218802	-0.00604428	1
0.2154	-0.00707618	1
0.21197	-0.00813188	1
0.208585	-0.00869126	1
0.205142	-0.00908279	1
0.201778	-0.0095966	1
0.198368	-0.0101667	1
0.19495	-0.0113147	1
0.191578	-0.011268	1
0.188171	-0.011637	1
0.184764	-0.0121216	1
0.181393	-0.0122942	1
0.177967	-0.0137327	1
0.174586	-0.0132711	1
0.171174	-0.0135356	1
0.167821	-0.0139431	1
0.164363	-0.0142575	1
0.161016	-0.0153742	1
0.157583	-0.0150923	1
0.154128	-0.0152328	1
0.150761	-0.0155783	1
0.147379	-0.0165446	1
0.14403	-0.0161837	1
0.140619	-0.0161742	1
0.137174	-0.016364	1
0.133809	-0.0164154	1
0.130357	-0.0175735	1
0.127614	-0.0168355	1
0.126536	-0.0148343	1
0.129121	-0.000221414	1
0.133973	0.00301296	1
0.138035	0.0072826	1
0.142112	0.00814037	1
0.147051	0.00960055	1
0.151253	0.00982583	1
0.154659	0.0110918	1
0.158003	0.0108702	1
0.16146	0.0109536	1
0.164852	0.0110623	1
0.168212	0.0112519	1
0.171615	0.0121074	1
0.175011	0.0115415	1
0.178465	0.0115934	1
0.181834	0.0116914	1
0.185273	0.0116817	1
0.188599	0.0125953	1
0.192037	0.0118795	1
0.195466	0.0117591	1
0.198845	0.0119723	1
0.202204	0.0118974	1
0.205583	0.0127563	1
0.208982	0.0121101	1
0.212407	0.0120997	1
0.215814	0.0122107	1
0.219278	0.0124503	1
0.222633	0.0130804	1
0.225394	0.0128486	1
0.226305	0.0211464	1
0.223689	-0.00163961	2
0.219478	-0.00289402	2
0.214322	-0.00642446	2
0.210949	-0.00768936	2
0.207563	-0.00782291	2
0.204159	-0.00830408	2
0.200692	-0.0089706	2
0.197323	-0.00982689	2
0.193924	-0.0102739	2
0.190525	-0.0106147	2
0.187132	-0.0110362	2
0.183717	-0.0115311	2
0.180324	-0.0124942	2
0.176918	-0.0124545	2
0.173545	-0.0126856	2
0.170151	-0.0131292	2
0.166784	-0.0134395	2
0.16336	-0.0148372	2
0.159991	-0.0141917	2
0.156581	-0.0144116	2
0.153143	-0.014818	2
0.149785	-0.0150412	2
0.14633	-0.0163984	2
0.142988	-0.0155577	2
0.139535	-0.0157831	2
0.136121	-0.0158684	2
0.132755	-0.0163043	2
0.129323	-0.0165954	2
0.127246	-0.0163362	2
0.126559	-0.0142053	2
0.129099	-8.27074e-05	2
0.133881	0.00415067	2
0.138013	0.00767918	2
0.141427	0.00857069	2
0.144766	0.00902349	2
0.148211	0.00961985	2
0.151577	0.00991141	2
0.15501	0.0110171	2
0.158439	0.0107575	2
0.161808	0.0109252	2
0.165209	0.0110621	2
0.168619	0.0110987	2
0.171991	0.0120216	2
0.175361	0.0115411	2
0.178736	0.0114961	2
0.182168	0.011552	2
0.185589	0.0116092	2
0.188976	0.0125935	2
0.192349	0.0117033	2
0.195783	0.0117567	2
0.199159	0.0118911	2
0.20257	0.0117218	2
0.205933	0.0124798	2
0.209351	0.0120705	2
0.212799	0.0121405	2
0.216176	0.012317	2
0.219614	0.0128533	2
0.222997	0.0127784	2
0.225436	0.0127808	2
0.22635	0.012474	2
0.226338	0.0154291	2