File: data/polarization_curves/K2Mo6Te8_her_tafel_run1_smaller.txt
Ewe/V	<I>/mA
-0.063877	-0.0101178
-0.0674032	-0.0105303
-0.0708818	-0.0101542
-0.0741962	-0.0105042
-0.0775162	-0.0107581
-0.0808694	-0.0110987
-0.0842188	-0.0114166
-0.0875709	-0.0116942
-0.0908453	-0.012077
-0.0941785	-0.0123596
-0.0974946	-0.0126563
-0.100838	-0.0129892
-0.104147	-0.0132996
-0.107451	-0.0136214
-0.110787	-0.0138984
-0.114141	-0.0142633
-0.11752	-0.0145784
-0.120783	-0.0148132
-0.124162	-0.014964
-0.127486	-0.0151061
-0.130851	-0.015402
-0.134167	-0.0157134
-0.137469	-0.0160234
-0.140854	-0.0163619
-0.144139	-0.0167361
-0.147479	-0.017113
-0.150753	-0.0174935
-0.154056	-0.0180012
-0.157433	-0.0185077
-0.160792	-0.0190331
-0.164169	-0.0196115
-0.167659	-0.0202653
-0.171076	-0.0206015
-0.17444	-0.0209656
-0.177734	-0.021374
-0.181011	-0.0218277
-0.184345	-0.02228
-0.187782	-0.022903
-0.191088	-0.0234247
-0.194386	-0.0239794
-0.197706	-0.0245809
-0.201012	-0.0254137
-0.204315	-0.0260423
-0.207619	-0.0267305
-0.211013	-0.0273936
-0.214386	-0.0280479
-0.217675	-0.0288304
-0.220991	-0.0296255
-0.224396	-0.0303815
-0.227772	-0.0313373
-0.231129	-0.032534
-0.234583	-0.0342861
-0.23818	-0.0348931
-0.241423	-0.0358689
-0.244752	-0.0369253
-0.248116	-0.0378798
-0.25136	-0.0388648
-0.25458	-0.0398792
-0.258117	-0.0409243
-0.261415	-0.0417587
-0.264691	-0.0430854
-0.26807	-0.0443936
-0.271405	-0.0457431
-0.274694	-0.0470872
-0.278046	-0.0485517
-0.281397	-0.0500261
-0.28472	-0.0513364
-0.287965	-0.052619
-0.29128	-0.0539497
-0.29467	-0.0553798
-0.298018	-0.0570508
-0.301365	-0.0587682
-0.304664	-0.0603995
-0.308005	-0.0620831
-0.311316	-0.064129
-0.314652	-0.0664298
-0.318032	-0.0687956
-0.321334	-0.0708198
-0.324706	-0.0729918
-0.328053	-0.0748072
-0.331346	-0.0766519
-0.334646	-0.0790043
-0.33801	-0.0810992
-0.341399	-0.0832259
-0.344668	-0.0853172
-0.347961	-0.0877462
-0.351353	-0.0904126
-0.354678	-0.0932899
-0.358056	-0.0962381
-0.361328	-0.0992735
-0.364631	-0.102234
-0.367929	-0.105095
-0.371322	-0.108575
-0.374633	-0.111811
-0.377982	-0.115247
-0.381353	-0.118949
-0.384618	-0.122567
-0.388011	-0.126485
-0.391348	-0.13107
-0.394597	-0.135811
-0.397974	-0.140496
-0.401296	-0.145182
-0.404604	-0.150338
-0.407952	-0.155947
-0.411323	-0.162351
-0.414696	-0.169108
-0.418002	-0.177031
-0.42128	-0.185092
-0.424554	-0.193323
-0.42793	-0.201864
-0.431245	-0.212033
-0.434611	-0.223202
-0.437928	-0.235124
-0.441272	-0.248115
-0.444572	-0.262561
-0.447896	-0.278566
-0.451245	-0.297617
-0.454605	-0.317554
-0.457894	-0.33872
-0.461249	-0.3654
-0.46456	-0.39206
-0.467928	-0.421847
-0.471252	-0.457297
-0.474621	-0.492561
-0.477939	-0.53634
-0.481268	-0.581897
-0.484502	-0.635271
-0.487873	-0.691748
-0.491199	-0.757205
-0.494545	-0.831767
-0.497892	-0.914814