File: data/polarization_curves/K2Mo6Te8_her_ecsa_run4.txt
Ewe/V	<I>/mA	cycle number
0.224128	-0.000520486	1
0.222225	-0.000853558	1
0.218925	-0.00153187	1
0.215529	-0.00199627	1
0.212147	-0.00234778	1
0.208814	-0.0026576	1
0.205417	-0.00293713	1
0.202011	-0.00318792	1
0.19869	-0.00338381	1
0.19534	-0.00369746	1
0.192015	-0.00384565	1
0.18826	-0.00451106	1
0.184401	-0.00434106	1
0.180882	-0.00441056	1
0.1775	-0.00453675	1
0.174181	-0.00465281	1
0.170792	-0.00477672	1
0.167448	-0.00496172	1
0.164088	-0.00505737	1
0.160799	-0.00516395	1
0.157384	-0.00526949	1
0.154027	-0.00543845	1
0.150681	-0.00570802	1
0.147275	-0.00562853	1
0.14398	-0.00568775	1
0.140619	-0.00582247	1
0.137271	-0.00596162	1
0.133915	-0.00607887	1
0.130541	-0.00621799	1
0.127665	-0.00632692	1
0.126464	-0.00637527	1
0.129059	-0.00221497	1
0.13313	-0.000796052	1
0.136489	-4.05302e-05	1
0.139845	0.000459273	1
0.143224	0.00092958	1
0.146537	0.00124992	1
0.149889	0.00156094	1
0.153226	0.0018525	1
0.156645	0.00208003	1
0.159986	0.00246032	1
0.163301	0.00245319	1
0.166743	0.00260838	1
0.170069	0.00276805	1
0.173413	0.00282021	1
0.176774	0.00299338	1
0.180123	0.00315154	1
0.18347	0.00323906	1
0.186833	0.003332	1
0.190184	0.00341273	1
0.193535	0.00349948	1
0.196897	0.00362138	1
0.200772	0.00408673	1
0.204676	0.00390251	1
0.20803	0.00403074	1
0.211317	0.00415949	1
0.214718	0.00428799	1
0.218131	0.00445896	1
0.221529	0.00461695	1
0.224677	0.00483159	1
0.226429	0.00407446	1
0.226153	0.00503269	1
0.224406	0.00185811	2
0.221055	0.000214563	2
0.217709	-0.000630445	2
0.2143	-0.00117239	2
0.210581	-0.00234884	2
0.206751	-0.00225137	2
0.203209	-0.00244324	2
0.199865	-0.00279989	2
0.196493	-0.0029663	2
0.193147	-0.00321019	2
0.189779	-0.00339263	2
0.186398	-0.00353848	2
0.183012	-0.00372665	2
0.179711	-0.00392055	2
0.17636	-0.00414757	2
0.172963	-0.00432623	2
0.169647	-0.00439376	2
0.166252	-0.00453282	2
0.162948	-0.00462176	2
0.159516	-0.00468811	2
0.156173	-0.00475399	2
0.152865	-0.00493416	2
0.149531	-0.00505948	2
0.146181	-0.00516383	2
0.142773	-0.00529547	2
0.139419	-0.00534637	2
0.136044	-0.00561891	2
0.132711	-0.00582505	2
0.129329	-0.00586033	2
0.127069	-0.0059421	2
0.12646	-0.00602046	2
0.129068	-0.00135893	2
0.133176	-0.000573035	2
0.136471	0.000139201	2
0.139843	0.000599723	2
0.143143	0.00105349	2
0.146543	0.00136856	2
0.149866	0.00168878	2
0.153258	0.00187838	2
0.156645	0.00209772	2
0.159968	0.00231957	2
0.163327	0.00256962	2
0.16671	0.00265042	2
0.170099	0.00273851	2
0.173375	0.00287345	2
0.176777	0.00300139	2
0.180124	0.00305182	2
0.183494	0.00315871	2
0.186836	0.00329911	2
0.190215	0.00338322	2
0.193512	0.00346446	2
0.196926	0.00354284	2
0.200265	0.00388366	2
0.203601	0.00386543	2
0.206979	0.00395852	2
0.2104	0.00406679	2
0.21366	0.00422882	2
0.217129	0.00438021	2
0.220508	0.00457642	2
0.223772	0.00470576	2
0.225876	0.00487408	2
0.226325	0.00439861	2
0.226374	0.0231987	2