File: data/pol_curves/K2Mo6Te8_her_ecsa_run7.txt
Ewe/V	<I>/mA	cycle number
0.202478	-0.0606609	1
0.200545	-0.055576	1
0.196923	-0.0577344	1
0.193354	-0.0587347	1
0.189739	-0.0604974	1
0.186148	-0.0605931	1
0.182595	-0.0582956	1
0.178919	-0.064059	1
0.175368	-0.0653832	1
0.171811	-0.0659761	1
0.168134	-0.0677426	1
0.164628	-0.0654894	1
0.160973	-0.0666955	1
0.157403	-0.0714219	1
0.153758	-0.0722873	1
0.15019	-0.0732052	1
0.146568	-0.0727344	1
0.142983	-0.0702739	1
0.139383	-0.0741833	1
0.135806	-0.0758872	1
0.132192	-0.0763309	1
0.12855	-0.0766954	1
0.126621	-0.0708598	1
0.126239	-0.0738337	1
0.126151	-0.0800283	1
0.131459	0.0437111	1
0.138087	0.0380373	1
0.14171	0.0438927	1
0.145315	0.0465435	1
0.148855	0.0479646	1
0.15246	0.0484261	1
0.156092	0.0479037	1
0.159691	0.0485415	1
0.163216	0.0514658	1
0.166837	0.0522819	1
0.17047	0.0523741	1
0.174036	0.0519996	1
0.177636	0.0506152	1
0.181252	0.0531197	1
0.184891	0.0542577	1
0.188437	0.0543417	1
0.192038	0.054072	1
0.195615	0.0511865	1
0.199224	0.0536924	1
0.20287	0.0550292	1
0.206459	0.0548588	1
0.210006	0.0545825	1
0.213655	0.0531293	1
0.217286	0.0532456	1
0.220897	0.0557095	1
0.224451	0.0557254	1
0.226489	0.0699072	1
0.226459	0.0606761	1
0.224379	-0.013532	2
0.220726	-0.0250098	2
0.217161	-0.0296362	2
0.213571	-0.0327785	2
0.209945	-0.0379995	2
0.206353	-0.0404173	2
0.202698	-0.0423026	2
0.199105	-0.0439131	2
0.195555	-0.0439682	2
0.191901	-0.045084	2
0.188339	-0.0492918	2
0.184727	-0.0503656	2
0.18116	-0.0518588	2
0.177575	-0.0523492	2
0.173933	-0.0514535	2
0.170342	-0.0548682	2
0.166789	-0.0573568	2
0.163173	-0.0588261	2
0.159571	-0.0593473	2
0.155954	-0.0585656	2
0.152333	-0.0593706	2
0.148788	-0.0632408	2
0.145109	-0.0639494	2
0.141616	-0.0644458	2
0.137945	-0.0646144	2
0.134361	-0.0619391	2
0.130775	-0.0655325	2
0.127656	-0.0681282	2
0.126155	-0.0810727	2
0.126159	-0.0718846	2
0.128271	0.0167217	2
0.131867	0.0319256	2
0.135503	0.0374257	2
0.139085	0.0387736	2
0.142695	0.0438368	2
0.146278	0.0469634	2
0.149869	0.0484434	2
0.153483	0.0493567	2
0.157098	0.0480656	2
0.160672	0.0488174	2
0.164366	0.0520738	2
0.167878	0.0527491	2
0.171486	0.0526302	2
0.175044	0.052326	2
0.178664	0.0506878	2
0.182277	0.0529192	2
0.185813	0.0545746	2
0.189437	0.0546202	2
0.193032	0.0541697	2
0.196661	0.0528436	2
0.200277	0.052671	2
0.203795	0.0545264	2
0.207478	0.0552788	2
0.211047	0.0550386	2
0.214644	0.0535053	2
0.218303	0.0533488	2
0.221895	0.0557729	2
0.224966	0.0575338	2
0.226371	0.0596543	2
0.226321	0.0782521	2